[Ohm;0;20000;3200]
0;120.0
387;120.0
443;115.0
509;110.0
586;105.0
678;100.0
786;95.0
916;90.0
1070;85.0
1256;80.0
1481;75.0
1753;70.0
2084;65.0
2490;60.0
2989;55.0
3605;50.0
4372;45.0
5330;40.0
6535;35.0
8060;30.0
10000;25.0
12486;20.0
15694;15.0
20000;10.0
